OOI LIBS	Data File
Monday	January	23	2012
Averages	1
QSwitch Delay	-2.9us

Data
Wavelength	Counts
198.77501	2.4000
198.83018	-4.6000
198.88535	8.4000
198.94051	0.4000
198.99567	-0.6000
199.05083	-0.6000
199.10598	-2.6000
199.16113	2.4000
199.21627	0.4000
199.27141	2.4000
199.32654	1.4000
199.38167	-1.6000
199.43679	-6.6000
199.49191	-0.6000
199.54703	0.4000
199.60214	2.4000
199.65725	0.4000
199.71235	-0.6000
199.76745	2.4000
199.82254	-5.6000
199.87763	-0.6000
199.93271	0.4000
199.98779	3.4000
200.04287	3.4000
200.09794	3.4000
200.15301	2.4000
200.20807	-1.6000
200.26313	7.4000
200.31818	19.4000
200.37323	20.4000
200.42828	21.4000
200.48332	20.4000
200.53835	27.4000
200.59339	12.4000
200.64841	22.4000
200.70344	25.4000
200.75845	21.4000
200.81347	12.4000
200.86848	15.4000
200.92348	13.4000
200.97848	14.4000
201.03348	17.4000
201.08847	24.4000
201.14346	15.4000
201.19844	7.4000
201.25342	16.4000
201.30840	20.4000
201.36337	18.4000
201.41833	10.4000
201.47329	16.4000
201.52825	15.4000
201.58320	16.4000
201.63815	14.4000
201.69309	16.4000
201.74803	22.4000
201.80297	12.4000
201.85790	15.4000
201.91282	20.4000
201.96774	19.4000
202.02266	9.4000
202.07757	19.4000
202.13248	18.4000
202.18738	11.4000
202.24228	19.4000
202.29718	18.4000
202.35207	12.4000
202.40695	12.4000
202.46184	16.4000
202.51671	18.4000
202.57159	12.4000
202.62645	17.4000
202.68132	21.4000
202.73618	19.4000
202.79103	19.4000
202.84588	19.4000
202.90073	16.4000
202.95557	18.4000
203.01041	12.4000
203.06524	17.4000
203.12007	19.4000
203.17489	14.4000
203.22971	19.4000
203.28453	23.4000
203.33934	20.4000
203.39415	18.4000
203.44895	21.4000
203.50374	26.4000
203.55854	24.4000
203.61333	18.4000
203.66811	23.4000
203.72289	27.4000
203.77767	21.4000
203.83244	22.4000
203.88720	28.4000
203.94197	21.4000
203.99672	18.4000
204.05148	18.4000
204.10623	19.4000
204.16097	21.4000
204.21571	15.4000
204.27045	17.4000
204.32518	20.4000
204.37990	13.4000
204.43463	18.4000
204.48934	18.4000
204.54406	19.4000
204.59877	17.4000
204.65347	21.4000
204.70817	23.4000
204.76287	20.4000
204.81756	20.4000
204.87224	19.4000
204.92693	16.4000
204.98160	13.4000
205.03628	17.4000
205.09095	16.4000
205.14561	19.4000
205.20027	15.4000
205.25493	25.4000
205.30958	26.4000
205.36423	20.4000
205.41887	18.4000
205.47351	23.4000
205.52814	26.4000
205.58277	20.4000
205.63739	23.4000
205.69202	26.4000
205.74663	20.4000
205.80124	25.4000
205.85585	34.4000
205.91045	29.4000
205.96505	30.4000
206.01964	34.4000
206.07423	31.4000
206.12882	30.4000
206.18340	24.4000
206.23798	26.4000
206.29255	32.4000
206.34711	21.4000
206.40168	23.4000
206.45624	26.4000
206.51079	29.4000
206.56534	23.4000
206.61988	25.4000
206.67442	26.4000
206.72896	22.4000
206.78349	24.4000
206.83802	29.4000
206.89254	37.4000
206.94706	35.4000
207.00158	39.4000
207.05608	39.4000
207.11059	35.4000
207.16509	31.4000
207.21959	32.4000
207.27408	31.4000
207.32857	27.4000
207.38305	32.4000
207.43753	34.4000
207.49200	29.4000
207.54647	32.4000
207.60094	31.4000
207.65540	43.4000
207.70985	38.4000
207.76431	35.4000
207.81875	40.4000
207.87320	37.4000
207.92763	34.4000
207.98207	37.4000
208.03650	37.4000
208.09092	42.4000
208.14534	34.4000
208.19976	37.4000
208.25417	39.4000
208.30858	35.4000
208.36298	43.4000
208.41738	49.4000
208.47178	47.4000
208.52617	60.4000
208.58055	68.4000
208.63493	70.4000
208.68931	58.4000
208.74368	44.4000
208.79805	40.4000
208.85241	42.4000
208.90677	35.4000
208.96112	34.4000
209.01547	36.4000
209.06982	32.4000
209.12416	37.4000
209.17850	35.4000
209.23283	30.4000
209.28716	35.4000
209.34148	29.4000
209.39580	33.4000
209.45011	39.4000
209.50442	38.4000
209.55873	36.4000
209.61303	39.4000
209.66732	37.4000
209.72162	39.4000
209.77590	35.4000
209.83019	37.4000
209.88447	33.4000
209.93874	32.4000
209.99301	29.4000
210.04727	43.4000
210.10154	29.4000
210.15579	35.4000
210.21004	41.4000
210.26429	36.4000
210.31853	31.4000
210.37277	35.4000
210.42701	34.4000
210.48124	34.4000
210.53546	33.4000
210.58968	39.4000
210.64390	34.4000
210.69811	36.4000
210.75232	32.4000
210.80652	43.4000
210.86072	36.4000
210.91492	36.4000
210.96911	37.4000
211.02329	34.4000
211.07747	30.4000
211.13165	35.4000
211.18582	38.4000
211.23999	39.4000
211.29415	30.4000
211.34831	38.4000
211.40246	40.4000
211.45661	31.4000
211.51076	36.4000
211.56490	45.4000
211.61903	37.4000
211.67317	40.4000
211.72729	40.4000
211.78142	30.4000
211.83554	32.4000
211.88965	30.4000
211.94376	35.4000
211.99786	39.4000
212.05196	34.4000
212.10606	40.4000
212.16015	44.4000
212.21424	37.4000
212.26832	37.4000
212.32240	37.4000
212.37648	38.4000
212.43055	41.4000
212.48461	34.4000
212.53867	40.4000
212.59273	38.4000
212.64678	31.4000
212.70083	38.4000
212.75487	44.4000
212.80891	39.4000
212.86294	31.4000
212.91697	38.4000
212.97100	36.4000
213.02502	34.4000
213.07903	30.4000
213.13304	38.4000
213.18705	42.4000
213.24105	30.4000
213.29505	35.4000
213.34905	44.4000
213.40303	40.4000
213.45702	38.4000
213.51100	37.4000
213.56498	43.4000
213.61895	40.4000
213.67291	45.4000
213.72688	47.4000
213.78084	41.4000
213.83479	37.4000
213.88874	42.4000
213.94268	39.4000
213.99662	37.4000
214.05056	33.4000
214.10449	45.4000
214.15842	44.4000
214.21234	43.4000
214.26626	33.4000
214.32017	41.4000
214.37408	37.4000
214.42799	39.4000
214.48189	42.4000
214.53578	42.4000
214.58967	36.4000
214.64356	40.4000
214.69744	44.4000
214.75132	41.4000
214.80519	37.4000
214.85906	38.4000
214.91293	43.4000
214.96679	38.4000
215.02064	39.4000
215.07449	37.4000
215.12834	39.4000
215.18218	39.4000
215.23602	34.4000
215.28985	43.4000
215.34368	35.4000
215.39751	46.4000
215.45132	39.4000
215.50514	45.4000
215.55895	44.4000
215.61276	43.4000
215.66656	48.4000
215.72036	53.4000
215.77415	43.4000
215.82794	47.4000
215.88172	53.4000
215.93550	58.4000
215.98928	53.4000
216.04305	58.4000
216.09681	65.4000
216.15058	72.4000
216.20433	78.4000
216.25809	75.4000
216.31183	81.4000
216.36558	65.4000
216.41932	61.4000
216.47305	62.4000
216.52678	51.4000
216.58051	44.4000
216.63423	50.4000
216.68795	52.4000
216.74166	49.4000
216.79537	47.4000
216.84907	47.4000
216.90277	47.4000
216.95647	41.4000
217.01016	49.4000
217.06384	54.4000
217.11752	41.4000
217.17120	44.4000
217.22487	48.4000
217.27854	46.4000
217.33220	49.4000
217.38586	42.4000
217.43952	48.4000
217.49317	53.4000
217.54681	45.4000
217.60046	44.4000
217.65409	51.4000
217.70772	48.4000
217.76135	51.4000
217.81497	51.4000
217.86859	46.4000
217.92221	45.4000
217.97582	48.4000
218.02942	50.4000
218.08302	49.4000
218.13662	45.4000
218.19021	44.4000
218.24380	51.4000
218.29738	49.4000
218.35096	43.4000
218.40453	52.4000
218.45810	49.4000
218.51167	40.4000
218.56523	43.4000
218.61879	47.4000
218.67234	44.4000
218.72589	44.4000
218.77943	46.4000
218.83297	47.4000
218.88650	48.4000
218.94003	46.4000
218.99355	58.4000
219.04707	55.4000
219.10059	52.4000
219.15410	55.4000
219.20761	51.4000
219.26111	50.4000
219.31461	49.4000
219.36810	45.4000
219.42159	52.4000
219.47508	45.4000
219.52856	54.4000
219.58203	51.4000
219.63550	52.4000
219.68897	45.4000
219.74243	48.4000
219.79589	46.4000
219.84934	48.4000
219.90279	46.4000
219.95623	51.4000
220.00967	57.4000
220.06311	43.4000
220.11654	44.4000
220.16997	54.4000
220.22339	50.4000
220.27681	46.4000
220.33022	47.4000
220.38363	47.4000
220.43703	51.4000
220.49043	53.4000
220.54382	56.4000
220.59721	55.4000
220.65060	52.4000
220.70398	48.4000
220.75736	55.4000
220.81073	48.4000
220.86410	50.4000
220.91746	58.4000
220.97082	48.4000
221.02418	47.4000
221.07753	53.4000
221.13087	52.4000
221.18421	46.4000
221.23755	52.4000
221.29088	49.4000
221.34421	54.4000
221.39753	47.4000
221.45085	50.4000
221.50417	60.4000
221.55748	50.4000
221.61078	45.4000
221.66408	52.4000
221.71738	50.4000
221.77067	47.4000
221.82396	50.4000
221.87724	53.4000
221.93052	55.4000
221.98379	55.4000
222.03706	54.4000
222.09033	61.4000
222.14359	48.4000
222.19684	57.4000
222.25009	57.4000
222.30334	59.4000
222.35658	56.4000
222.40982	55.4000
222.46305	59.4000
222.51628	61.4000
222.56951	46.4000
222.62273	54.4000
222.67594	56.4000
222.72915	50.4000
222.78236	57.4000
222.83556	56.4000
222.88876	54.4000
222.94195	52.4000
222.99514	56.4000
223.04833	59.4000
223.10151	60.4000
223.15468	53.4000
223.20785	53.4000
223.26102	61.4000
223.31418	53.4000
223.36734	51.4000
223.42049	60.4000
223.47364	52.4000
223.52678	58.4000
223.57992	52.4000
223.63305	57.4000
223.68618	61.4000
223.73931	52.4000
223.79243	57.4000
223.84555	54.4000
223.89866	54.4000
223.95177	52.4000
224.00487	50.4000
224.05797	53.4000
224.11106	52.4000
224.16415	60.4000
224.21724	64.4000
224.27032	54.4000
224.32340	52.4000
224.37647	54.4000
224.42953	60.4000
224.48260	54.4000
224.53566	57.4000
224.58871	66.4000
224.64176	59.4000
224.69480	56.4000
224.74784	58.4000
224.80088	67.4000
224.85391	58.4000
224.90694	56.4000
224.95996	64.4000
225.01298	63.4000
225.06599	57.4000
225.11900	59.4000
225.17200	66.4000
225.22500	62.4000
225.27800	58.4000
225.33099	67.4000
225.38398	66.4000
225.43696	60.4000
225.48994	59.4000
225.54291	67.4000
225.59588	60.4000
225.64884	55.4000
225.70180	61.4000
225.75475	66.4000
225.80770	59.4000
225.86065	57.4000
225.91359	70.4000
225.96653	63.4000
226.01946	57.4000
226.07239	57.4000
226.12531	65.4000
226.17823	65.4000
226.23115	55.4000
226.28405	66.4000
226.33696	65.4000
226.38986	60.4000
226.44276	65.4000
226.49565	63.4000
226.54854	68.4000
226.60142	61.4000
226.65430	64.4000
226.70717	65.4000
226.76004	58.4000
226.81291	59.4000
226.86577	66.4000
226.91862	70.4000
226.97147	66.4000
227.02432	63.4000
227.07716	66.4000
227.13000	65.4000
227.18283	63.4000
227.23566	61.4000
227.28849	69.4000
227.34131	72.4000
227.39412	61.4000
227.44693	67.4000
227.49974	64.4000
227.55254	67.4000
227.60534	70.4000
227.65813	80.4000
227.71092	70.4000
227.76370	73.4000
227.81648	80.4000
227.86926	74.4000
227.92203	80.4000
227.97479	76.4000
228.02755	77.4000
228.08031	83.4000
228.13306	76.4000
228.18581	83.4000
228.23855	89.4000
228.29129	91.4000
228.34402	88.4000
228.39675	103.4000
228.44948	110.4000
228.50220	111.4000
228.55492	116.4000
228.60763	104.4000
228.66033	89.4000
228.71304	83.4000
228.76573	92.4000
228.81843	97.4000
228.87112	90.4000
228.92380	99.4000
228.97648	109.4000
229.02916	107.4000
229.08183	96.4000
229.13449	103.4000
229.18716	107.4000
229.23981	133.4000
229.29247	130.4000
229.34512	123.4000
229.39776	115.4000
229.45040	109.4000
229.50303	100.4000
229.55566	92.4000
229.60829	82.4000
229.66091	78.4000
229.71353	80.4000
229.76614	79.4000
229.81875	76.4000
229.87135	80.4000
229.92395	83.4000
229.97654	82.4000
230.02913	87.4000
230.08172	83.4000
230.13430	89.4000
230.18688	80.4000
230.23945	80.4000
230.29202	76.4000
230.34458	82.4000
230.39714	77.4000
230.44969	77.4000
230.50224	76.4000
230.55478	86.4000
230.60732	85.4000
230.65986	88.4000
230.71239	87.4000
230.76492	80.4000
230.81744	76.4000
230.86996	87.4000
230.92247	79.4000
230.97498	79.4000
231.02748	75.4000
231.07998	82.4000
231.13248	77.4000
231.18497	71.4000
231.23745	70.4000
231.28993	80.4000
231.34241	74.4000
231.39488	78.4000
231.44735	82.4000
231.49981	89.4000
231.55227	100.4000
231.60473	103.4000
231.65718	94.4000
231.70962	93.4000
231.76206	81.4000
231.81450	90.4000
231.86693	91.4000
231.91936	82.4000
231.97178	81.4000
232.02420	87.4000
232.07661	85.4000
232.12902	78.4000
232.18142	84.4000
232.23382	88.4000
232.28622	96.4000
232.33861	101.4000
232.39100	109.4000
232.44338	105.4000
232.49576	82.4000
232.54813	84.4000
232.60050	94.4000
232.65286	85.4000
232.70522	79.4000
232.75758	88.4000
232.80993	90.4000
232.86227	104.4000
232.91461	106.4000
232.96695	104.4000
233.01928	103.4000
233.07161	93.4000
233.12393	86.4000
233.17625	96.4000
233.22856	81.4000
233.28087	78.4000
233.33318	84.4000
233.38548	82.4000
233.43777	84.4000
233.49007	82.4000
233.54235	81.4000
233.59464	87.4000
233.64691	79.4000
233.69919	77.4000
233.75146	86.4000
233.80372	87.4000
233.85598	82.4000
233.90823	87.4000
233.96049	91.4000
234.01273	84.4000
234.06497	87.4000
234.11721	82.4000
234.16944	84.4000
234.22167	81.4000
234.27389	82.4000
234.32611	83.4000
234.37833	90.4000
234.43054	83.4000
234.48274	86.4000
234.53494	82.4000
234.58714	82.4000
234.63933	88.4000
234.69152	84.4000
234.74370	82.4000
234.79588	79.4000
234.84805	80.4000
234.90022	94.4000
234.95239	91.4000
235.00455	85.4000
235.05670	96.4000
235.10885	90.4000
235.16100	87.4000
235.21314	97.4000
235.26528	87.4000
235.31741	90.4000
235.36954	85.4000
235.42166	91.4000
235.47378	95.4000
235.52590	100.4000
235.57801	112.4000
235.63011	129.4000
235.68221	119.4000
235.73431	98.4000
235.78640	97.4000
235.83849	103.4000
235.89057	89.4000
235.94265	86.4000
235.99473	91.4000
236.04680	95.4000
236.09886	86.4000
236.15092	87.4000
236.20298	98.4000
236.25503	93.4000
236.30707	91.4000
236.35912	95.4000
236.41115	105.4000
236.46319	96.4000
236.51522	91.4000
236.56724	97.4000
236.61926	92.4000
236.67127	86.4000
236.72328	85.4000
236.77529	96.4000
236.82729	93.4000
236.87929	87.4000
236.93128	92.4000
236.98327	96.4000
237.03525	96.4000
237.08723	96.4000
237.13920	113.4000
237.19117	111.4000
237.24314	95.4000
237.29510	90.4000
237.34705	92.4000
237.39901	84.4000
237.45095	92.4000
237.50290	89.4000
237.55483	96.4000
237.60677	93.4000
237.65869	91.4000
237.71062	90.4000
237.76254	88.4000
237.81445	80.4000
237.86636	85.4000
237.91827	93.4000
237.97017	81.4000
238.02207	94.4000
238.07396	103.4000
238.12585	99.4000
238.17773	95.4000
238.22961	93.4000
238.28148	93.4000
238.33335	95.4000
238.38522	95.4000
238.43708	100.4000
238.48894	97.4000
238.54079	105.4000
238.59263	115.4000
238.64448	114.4000
238.69631	116.4000
238.74815	111.4000
238.79998	115.4000
238.85180	126.4000
238.90362	122.4000
238.95543	105.4000
239.00725	98.4000
239.05905	104.4000
239.11085	103.4000
239.16265	103.4000
239.21444	111.4000
239.26623	102.4000
239.31801	101.4000
239.36979	101.4000
239.42157	96.4000
239.47334	101.4000
239.52510	96.4000
239.57686	95.4000
239.62862	100.4000
239.68037	97.4000
239.73212	100.4000
239.78386	96.4000
239.83560	100.4000
239.88733	99.4000
239.93906	106.4000
239.99078	103.4000
240.04250	101.4000
240.09422	108.4000
240.14593	109.4000
240.19763	114.4000
240.24933	117.4000
240.30103	131.4000
240.35272	156.4000
240.40441	179.4000
240.45609	189.4000
240.50777	196.4000
240.55945	171.4000
240.61112	141.4000
240.66278	130.4000
240.71444	116.4000
240.76610	105.4000
240.81775	103.4000
240.86940	104.4000
240.92104	116.4000
240.97268	108.4000
241.02431	105.4000
241.07594	115.4000
241.12756	101.4000
241.17918	97.4000
241.23080	111.4000
241.28241	112.4000
241.33401	112.4000
241.38561	109.4000
241.43721	108.4000
241.48880	109.4000
241.54039	101.4000
241.59197	113.4000
241.64355	118.4000
241.69512	124.4000
241.74669	126.4000
241.79826	147.4000
241.84982	156.4000
241.90137	164.4000
241.95293	161.4000
242.00447	152.4000
242.05601	136.4000
242.10755	118.4000
242.15908	114.4000
242.21061	118.4000
242.26214	117.4000
242.31366	107.4000
242.36517	115.4000
242.41668	120.4000
242.46819	107.4000
242.51969	107.4000
242.57118	108.4000
242.62267	112.4000
242.67416	105.4000
242.72564	107.4000
242.77712	114.4000
242.82860	116.4000
242.88007	108.4000
242.93153	112.4000
242.98299	109.4000
243.03445	106.4000
243.08590	119.4000
243.13734	115.4000
243.18878	110.4000
243.24022	115.4000
243.29165	119.4000
243.34308	116.4000
243.39451	118.4000
243.44592	109.4000
243.49734	116.4000
243.54875	119.4000
243.60015	122.4000
243.65155	111.4000
243.70295	118.4000
243.75434	120.4000
243.80573	128.4000
243.85711	127.4000
243.90849	129.4000
243.95986	121.4000
244.01123	133.4000
244.06259	147.4000
244.11395	147.4000
244.16531	146.4000
244.21666	167.4000
244.26801	190.4000
244.31935	200.4000
244.37068	194.4000
244.42202	182.4000
244.47334	171.4000
244.52467	167.4000
244.57599	167.4000
244.62730	205.4000
244.67861	243.4000
244.72991	276.4000
244.78121	289.4000
244.83251	279.4000
244.88380	224.4000
244.93509	191.4000
244.98637	158.4000
245.03765	150.4000
245.08892	120.4000
245.14019	123.4000
245.19145	132.4000
245.24271	128.4000
245.29396	125.4000
245.34521	130.4000
245.39646	128.4000
245.44770	125.4000
245.49894	149.4000
245.55017	183.4000
245.60140	204.4000
245.65262	184.4000
245.70384	161.4000
245.75505	129.4000
245.80626	125.4000
245.85746	120.4000
245.90866	126.4000
245.95986	118.4000
246.01105	114.4000
246.06223	110.4000
246.11342	113.4000
246.16459	105.4000
246.21576	97.4000
246.26693	102.4000
246.31810	109.4000
246.36925	105.4000
246.42041	104.4000
246.47156	111.4000
246.52270	110.4000
246.57384	106.4000
246.62498	108.4000
246.67611	106.4000
246.72724	109.4000
246.77836	102.4000
246.82948	107.4000
246.88059	112.4000
246.93170	105.4000
246.98280	111.4000
247.03390	109.4000
247.08499	111.4000
247.13608	102.4000
247.18717	112.4000
247.23825	104.4000
247.28933	103.4000
247.34040	98.4000
247.39147	108.4000
247.44253	106.4000
247.49359	100.4000
247.54464	102.4000
247.59569	116.4000
247.64673	102.4000
247.69777	103.4000
247.74881	106.4000
247.79984	106.4000
247.85086	104.4000
247.90188	97.4000
247.95290	116.4000
248.00391	116.4000
248.05492	101.4000
248.10592	109.4000
248.15692	113.4000
248.20792	101.4000
248.25891	107.4000
248.30989	103.4000
248.36087	111.4000
248.41185	109.4000
248.46282	105.4000
248.51378	115.4000
248.56474	123.4000
248.61570	117.4000
248.66665	117.4000
248.71760	118.4000
248.76855	108.4000
248.81948	116.4000
248.87042	115.4000
248.92135	105.4000
248.97227	110.4000
249.02319	110.4000
249.07411	107.4000
249.12502	106.4000
249.17593	102.4000
249.22683	110.4000
249.27773	121.4000
249.32862	116.4000
249.37951	103.4000
249.43039	110.4000
249.48127	118.4000
249.53215	118.4000
249.58302	115.4000
249.63388	112.4000
249.68474	118.4000
249.73560	111.4000
249.78645	114.4000
249.83730	116.4000
249.88814	111.4000
249.93898	116.4000
249.98981	108.4000
250.04064	104.4000
250.09147	110.4000
250.14229	104.4000
250.19310	108.4000
250.24391	104.4000
250.29472	116.4000
250.34552	112.4000
250.39632	111.4000
250.44711	115.4000
250.49790	110.4000
250.54868	106.4000
250.59946	108.4000
250.65023	109.4000
250.70100	108.4000
250.75177	120.4000
250.80253	108.4000
250.85328	112.4000
250.90403	118.4000
250.95478	109.4000
251.00552	108.4000
251.05626	112.4000
251.10699	117.4000
251.15772	102.4000
251.20844	106.4000
251.25916	114.4000
251.30987	112.4000
251.36058	104.4000
251.41129	107.4000
251.46199	112.4000
251.51269	109.4000
251.56338	114.4000
251.61406	118.4000
251.66475	119.4000
251.71542	106.4000
251.76610	114.4000
251.81676	117.4000
251.86743	108.4000
251.91809	110.4000
251.96874	114.4000
252.01939	118.4000
252.07004	120.4000
252.12068	106.4000
252.17131	115.4000
252.22194	118.4000
252.27257	108.4000
252.32319	109.4000
252.37381	117.4000
252.42442	117.4000
252.47503	111.4000
252.52564	117.4000
252.57624	112.4000
252.62683	112.4000
252.67742	111.4000
252.72801	116.4000
252.77859	120.4000
252.82916	115.4000
252.87974	120.4000
252.93030	123.4000
252.98087	121.4000
253.03142	125.4000
253.08198	144.4000
253.13253	147.4000
253.18307	141.4000
253.23361	129.4000
253.28415	121.4000
253.33468	124.4000
253.38520	116.4000
253.43572	123.4000
253.48624	135.4000
253.53675	120.4000
253.58726	117.4000
253.63776	120.4000
253.68826	120.4000
253.73875	120.4000
253.78924	109.4000
253.83973	116.4000
253.89021	122.4000
253.94068	124.4000
253.99115	137.4000
254.04162	161.4000
254.09208	159.4000
254.14254	149.4000
254.19299	143.4000
254.24344	121.4000
254.29388	120.4000
254.34432	122.4000
254.39475	128.4000
254.44518	130.4000
254.49561	116.4000
254.54603	116.4000
254.59644	110.4000
254.64685	117.4000
254.69726	116.4000
254.74766	118.4000
254.79806	121.4000
254.84845	122.4000
254.89884	158.4000
254.94922	166.4000
254.99960	160.4000
255.04997	127.4000
255.10034	121.4000
255.15071	123.4000
255.20107	122.4000
255.25142	115.4000
255.30178	120.4000
255.35212	112.4000
255.40246	118.4000
255.45280	115.4000
255.50313	106.4000
255.55346	114.4000
255.60378	114.4000
255.65410	109.4000
255.70442	117.4000
255.75473	108.4000
255.80503	110.4000
255.85533	121.4000
255.90563	121.4000
255.95592	116.4000
256.00621	119.4000
